x,intensity
0,-16452423.000
1,-16439511.000
2,-16440641.000
3,-16429714.000
4,-16428844.000
5,-16442658.000
6,-16437770.000
7,-16426135.000
8,-16426500.000
9,-16435539.000
10,-16442652.000
11,-16448023.000
12,-16443901.000
13,-16431404.000
14,-16427508.000
15,-16429947.000
16,-16424739.000
17,-16406429.000
18,-16399512.000
19,-16418261.000
20,-16434961.000
21,-16437387.000
22,-16434819.000
23,-16435529.000
24,-16438292.000
25,-16441226.000
26,-16447167.000
27,-16447191.000
28,-16438373.000
29,-16435596.000
30,-16441863.000
31,-16445834.000
32,-16445671.000
33,-16440317.000
34,-16433260.000
35,-16439085.000
36,-16447345.000
37,-16440456.000
38,-16433313.000
39,-16432671.000
40,-16433761.000
41,-16438533.000
42,-16439429.000
43,-16433306.000
44,-16433814.000
45,-16440200.000
46,-16443386.000
47,-16446165.000
48,-16449276.000
49,-16449920.000
50,-16448722.000
51,-16447485.000
52,-16442251.000
53,-16433599.000
54,-16432056.000
55,-16441367.000
56,-16449997.000
57,-16447583.000
58,-16439009.000
59,-16438105.000
60,-16441426.000
61,-16438869.000
62,-16438741.000
63,-16442535.000
64,-16442498.000
65,-16437678.000
66,-16435667.000
67,-16440567.000
68,-16443078.000
69,-16443955.000
70,-16445042.000
71,-16444392.000
72,-16439194.000
73,-16432033.000
74,-16434157.000
75,-16441103.000
76,-16439288.000
77,-16413089.000
78,-16294025.000
79,-15967630.000
80,-15290680.000
81,-14272549.000
82,-13052308.000
83,-11607705.000
84,-9597481.000
85,-6949240.000
86,-4494007.500
87,-2872373.250
88,-2238000.750
89,-1994990.125
90,-1813997.875
91,-1708972.500
92,-1646953.125
93,-1820709.625
94,-2188832.750
95,-2726804.000
96,-3265418.250
97,-3994930.750
98,-4837852.500
99,-5532891.000
100,-6236193.000
101,-7045863.500
102,-7974890.500
103,-8846110.000
104,-9688648.000
105,-10564918.000
106,-11299326.000
107,-11869048.000
108,-12368793.000
109,-12818460.000
110,-13202286.000
111,-13574175.000
112,-13929856.000
113,-14215222.000
114,-14460554.000
115,-14697185.000
116,-14922602.000
117,-15110471.000
118,-15259875.000
119,-15382658.000
120,-15493310.000
121,-15594960.000
122,-15674133.000
123,-15736764.000
124,-15812133.000
125,-15899862.000
126,-15964760.000
127,-15996364.000
128,-16027819.000
129,-16073082.000
130,-16114208.000
131,-16138550.000
132,-16160324.000
133,-16181720.000
134,-16205820.000
135,-16229558.000
136,-16248614.000
137,-16271322.000
138,-16298026.000
139,-16319118.000
140,-16327663.000
141,-16333917.000
142,-16337562.000
143,-16333913.000
144,-16335597.000
145,-16345599.000
146,-16348583.000
147,-16346246.000
148,-16347390.000
149,-16351769.000
150,-16345421.000
151,-16333107.000
152,-16328068.000
153,-16340385.000
154,-16357753.000
155,-16360559.000
156,-16360308.000
157,-16363797.000
158,-16358445.000
159,-16355471.000
160,-16361540.000
161,-16366655.000
162,-16370820.000
163,-16369126.000
164,-16362672.000
165,-16365272.000
166,-16376514.000
167,-16380584.000
168,-16387330.000
169,-16398240.000
170,-16403987.000
171,-16401526.000
172,-16397952.000
173,-16395708.000
174,-16395972.000
175,-16399140.000
176,-16404984.000
177,-16403384.000
178,-16391613.000
179,-16395432.000
180,-16408785.000
181,-16409372.000
182,-16411758.000
183,-16416647.000
184,-16408938.000
185,-16396444.000
186,-16399297.000
187,-16410807.000
188,-16412425.000
189,-16407744.000
190,-16406526.000
191,-16412285.000
192,-16417483.000
193,-16416139.000
194,-16416779.000
195,-16420902.000
196,-16417700.000
197,-16412490.000
198,-16414349.000
199,-16414906.000
200,-16408257.000
201,-16398499.000
202,-16401193.000
203,-16404816.000
204,-16406084.000
205,-16410821.000
206,-16414564.000
207,-16419095.000
208,-16420690.000
209,-16418599.000
210,-16408164.000
211,-16404275.000
212,-16413752.000
213,-16420428.000
214,-16422427.000
215,-16425501.000
216,-16423061.000
217,-16416691.000
218,-16410002.000
219,-16412676.000
220,-16422056.000
221,-16429368.000
222,-16430634.000
223,-16431259.000
224,-16427291.000
225,-16420172.000
226,-16419069.000
227,-16419036.000
228,-16423464.000
229,-16432261.000
230,-16433802.000
231,-16429963.000
232,-16432776.000
233,-16440214.000
234,-16444676.000
235,-16445340.000
236,-16446543.000
237,-16444666.000
238,-16407131.000
239,-16274018.000
240,-15944765.000
241,-15401154.000
242,-14719813.000
243,-13891795.000
244,-12750252.000
245,-11122336.000
246,-8967025.000
247,-6752885.500
248,-5429108.500
249,-5155130.000
250,-5229814.000
251,-5250487.000
252,-5319076.500
253,-5570080.500
254,-5910434.000
255,-6341397.500
256,-7028305.000
257,-7887817.500
258,-8685237.000
259,-9417384.000
260,-10061098.000
261,-10638566.000
262,-11238087.000
263,-11797477.000
264,-12348201.000
265,-12909210.000
266,-13388840.000
267,-13746810.000
268,-14057122.000
269,-14346889.000
270,-14603764.000
271,-14849601.000
272,-15068193.000
273,-15231849.000
274,-15377443.000
275,-15527517.000
276,-15663500.000
277,-15784929.000
278,-15895183.000
279,-15989854.000
280,-16063873.000
281,-16121996.000
282,-16159175.000
283,-16196948.000
284,-16239475.000
285,-16268360.000
286,-16293225.000
287,-16322111.000
288,-16351119.000
289,-16368775.000
290,-16371528.000
291,-16371117.000
292,-16375249.000
293,-16379550.000
294,-16386561.000
295,-16401236.000
296,-16415095.000
297,-16416835.000
298,-16414475.000
299,-16419941.000
300,-16424416.000
301,-16422604.000
302,-16421190.000
303,-16422997.000
304,-16427149.000
305,-16433207.000
306,-16438496.000
307,-16437342.000
308,-16432629.000
309,-16429693.000
310,-16428932.000
311,-16428549.000
312,-16429685.000
313,-16424850.000
314,-16405798.000
315,-16395413.000
316,-16413140.000
317,-16431630.000
318,-16433539.000
319,-16427919.000
320,-16427736.000
321,-16431620.000
322,-16434434.000
323,-16440388.000
324,-16440071.000
325,-16432047.000
326,-16428906.000
327,-16431887.000
328,-16436181.000
329,-16438440.000
330,-16430956.000
331,-16423968.000
332,-16430094.000
333,-16433381.000
334,-16431271.000
335,-16434260.000
336,-16429662.000
337,-16426104.000
338,-16431423.000
339,-16439311.000
340,-16443787.000
341,-16438888.000
342,-16435737.000
343,-16438012.000
344,-16436586.000
345,-16433597.000
346,-16434500.000
347,-16438557.000
348,-16444175.000
349,-16449656.000
350,-16444533.000
351,-16432338.000
352,-16428665.000
353,-16433903.000
354,-16437643.000
355,-16439158.000
356,-16439317.000
357,-16436956.000
358,-16438422.000
359,-16440978.000
360,-16434350.000
361,-16430096.000
362,-16436813.000
363,-16444094.000
364,-16444824.000
365,-16444060.000
366,-16446490.000
367,-16449115.000
368,-16447691.000
369,-16440992.000
370,-16435406.000
371,-16435133.000
372,-16435902.000
373,-16431885.000
374,-16430612.000
375,-16434484.000
376,-16435243.000
377,-16430339.000
378,-16427829.000
379,-16430067.000
380,-16430978.000
381,-16433536.000
382,-16436799.000
383,-16435072.000
384,-16434801.000
385,-16440831.000
386,-16441471.000
387,-16437604.000
388,-16434523.000
389,-16437330.000
390,-16439304.000
391,-16427022.000
392,-16422186.000
393,-16435001.000
394,-16445098.000
395,-16448578.000
396,-16445268.000
397,-16437899.000
398,-16434003.000
399,-16433724.000
400,-16435305.000
401,-16435454.000
402,-16437602.000
403,-16443587.000
404,-16443260.000
405,-16435342.000
406,-16434365.000
407,-16439861.000
408,-16441338.000
409,-16442631.000
410,-16441799.000
411,-16441357.000
412,-16448742.000
413,-16449428.000
414,-16438629.000
415,-16435067.000
416,-16441811.000
417,-16445511.000
418,-16442145.000
419,-16439914.000
420,-16436894.000
421,-16432948.000
422,-16436837.000
423,-16446319.000
424,-16452160.000
425,-16452677.000
426,-16446206.000
427,-16439805.000
428,-16438830.000
429,-16441093.000
430,-16445789.000
431,-16448024.000
432,-16448321.000
433,-16446917.000
434,-16443787.000
435,-16443165.000
436,-16443099.000
437,-16440036.000
438,-16439909.000
439,-16441004.000
440,-16436454.000
441,-16432046.000
442,-16436653.000
443,-16440583.000
444,-16436103.000
445,-16426235.000
446,-16426518.000
447,-16440663.000
448,-16450228.000
449,-16450607.000
450,-16446932.000
451,-16439517.000
452,-16429610.000
453,-16426716.000
454,-16435972.000
455,-16448290.000
456,-16449463.000
457,-16444451.000
458,-16444076.000
459,-16440677.000
460,-16434949.000
461,-16434102.000
462,-16440427.000
463,-16444714.000
464,-16439105.000
465,-16436888.000
466,-16437952.000
467,-16434563.000
468,-16436694.000
469,-16442692.000
470,-16444758.000
471,-16446545.000
472,-16448845.000
473,-16449381.000
474,-16445923.000
475,-16441296.000
476,-16440518.000
477,-16441873.000
478,-16442768.000
479,-16441808.000
480,-16434249.000
481,-16427373.000
482,-16431025.000
483,-16436198.000
484,-16438069.000
485,-16440366.000
486,-16442854.000
487,-16441615.000
488,-16441439.000
489,-16442148.000
490,-16442327.000
491,-16445667.000
492,-16446417.000
493,-16444035.000
494,-16439897.000
495,-16434470.000
496,-16438300.000
497,-16445915.000
498,-16448486.000
499,-16449099.000
500,-16448063.000
501,-16441111.000
502,-16432233.000
503,-16435620.000
504,-16443555.000
505,-16443950.000
506,-16444953.000
507,-16447373.000
508,-16444847.000
509,-16440544.000
510,-16444288.000
511,-16445314.000
512,-16435544.000
513,-16436986.000
514,-16448398.000
515,-16452462.000
516,-16451467.000
517,-16449579.000
518,-16445042.000
519,-16440514.000
520,-16441232.000
521,-16442654.000
522,-16438343.000
523,-16437070.000
524,-16443239.000
525,-16444392.000
526,-16441698.000
527,-16441384.000
528,-16442652.000
529,-16440348.000
530,-16432139.000
531,-16432107.000
532,-16440988.000
533,-16444032.000
534,-16442262.000
535,-16442532.000
536,-16444237.000
537,-16446706.000
538,-16447195.000
539,-16446312.000
540,-16443574.000
541,-16435573.000
542,-16435293.000
543,-16440975.000
544,-16445051.000
545,-16447667.000
546,-16449844.000
547,-16450208.000
548,-16445792.000
549,-16438964.000
550,-16437714.000
551,-16443233.000
552,-16445324.000
553,-16443193.000
554,-16434293.000
555,-16427144.000
556,-16433062.000
557,-16442371.000
558,-16441733.000
559,-16438040.000
560,-16436627.000
561,-16429465.000
562,-16425154.000
563,-16436872.000
564,-16451371.000
565,-16451953.000
566,-16444508.000
567,-16438228.000
568,-16436922.000
569,-16435001.000
570,-16432592.000
571,-16436662.000
572,-16443820.000
573,-16443477.000
574,-16439326.000
575,-16440002.000
576,-16441267.000
577,-16441238.000
578,-16438511.000
579,-16440440.000
580,-16444895.000
581,-16444334.000
582,-16444917.000
583,-16446524.000
584,-16446288.000
585,-16442425.000
586,-16436341.000
587,-16432081.000
588,-16432528.000
589,-16437843.000
590,-16439042.000
591,-16440042.000
592,-16441581.000
593,-16441998.000
594,-16449406.000
595,-16456246.000
596,-16455918.000
597,-16450797.000
598,-16444586.000
599,-16444512.000
600,-16446721.000
601,-16440737.000
602,-16439975.000
603,-16449872.000
604,-16454436.000
605,-16448836.000
606,-16437168.000
607,-16429340.000
608,-16433763.000
609,-16442820.000
610,-16442539.000
611,-16442818.000
612,-16446524.000
613,-16441652.000
614,-16431612.000
615,-16432110.000
616,-16439156.000
617,-16436759.000
618,-16434752.000
619,-16439336.000
620,-16437885.000
621,-16435033.000
622,-16433001.000
623,-16422575.000
624,-16422149.000
625,-16436322.000
626,-16444511.000
627,-16443008.000
628,-16441025.000
629,-16441681.000
630,-16444890.000
631,-16447971.000
632,-16445423.000
633,-16440923.000
634,-16440810.000
635,-16440670.000
636,-16440435.000
637,-16443890.000
638,-16443217.000
639,-16433552.000
640,-16427906.000
641,-16426378.000
642,-16383986.000
643,-16240846.000
644,-15935489.000
645,-15484055.000
646,-14977900.000
647,-14324189.000
648,-13296571.000
649,-11864899.000
650,-10132198.000
651,-8510695.000
652,-7688944.000
653,-7601838.000
654,-7613359.500
655,-7481527.000
656,-7423666.000
657,-7628915.500
658,-8033778.500
659,-8492005.000
660,-9089176.000
661,-9826264.000
662,-10420151.000
663,-10942049.000
664,-11493111.000
665,-12011222.000
666,-12499005.000
667,-12969145.000
668,-13421961.000
669,-13841233.000
670,-14212246.000
671,-14489224.000
672,-14727791.000
673,-14963833.000
674,-15167106.000
675,-15335538.000
676,-15481858.000
677,-15605733.000
678,-15728470.000
679,-15851732.000
680,-15962894.000
681,-16045763.000
682,-16117127.000
683,-16182604.000
684,-16234664.000
685,-16277199.000
686,-16316736.000
687,-16350407.000
688,-16373782.000
689,-16382611.000
690,-16383508.000
691,-16389097.000
692,-16400557.000
693,-16405697.000
694,-16408173.000
695,-16413549.000
696,-16415894.000
697,-16414077.000
698,-16418238.000
699,-16425372.000
700,-16427635.000
701,-16427283.000
702,-16428919.000
703,-16429426.000
704,-16431820.000
705,-16434433.000
706,-16432932.000
707,-16422384.000
708,-16415395.000
709,-16423344.000
710,-16434613.000
711,-16437933.000
712,-16434744.000
713,-16434750.000
714,-16437426.000
715,-16435435.000
716,-16424279.000
717,-16423961.000
718,-16432753.000
719,-16430836.000
720,-16428993.000
721,-16436285.000
722,-16440017.000
723,-16434571.000
724,-16429671.000
725,-16426499.000
726,-16432539.000
727,-16440843.000
728,-16432620.000
729,-16422902.000
730,-16422733.000
731,-16425345.000
732,-16429605.000
733,-16435274.000
734,-16437769.000
735,-16432058.000
736,-16430341.000
737,-16439306.000
738,-16444547.000
739,-16440217.000
740,-16438338.000
741,-16438258.000
742,-16439040.000
743,-16443560.000
744,-16445275.000
745,-16443011.000
746,-16443088.000
747,-16441855.000
748,-16435211.000
749,-16425412.000
750,-16419725.000
751,-16425945.000
752,-16435244.000
753,-16436018.000
754,-16435360.000
755,-16440784.000
756,-16432944.000
757,-16420496.000
758,-16426137.000
759,-16431999.000
760,-16429292.000
761,-16433881.000
762,-16437343.000
763,-16428262.000
764,-16422181.000
765,-16422431.000
766,-16426814.000
767,-16434633.000
768,-16439489.000
769,-16443706.000
770,-16443880.000
771,-16432363.000
772,-16423458.000
773,-16425885.000
774,-16432058.000
775,-16436283.000
776,-16438957.000
777,-16439491.000
778,-16437944.000
779,-16435899.000
780,-16434759.000
781,-16433734.000
782,-16430671.000
783,-16427737.000
784,-16425954.000
785,-16428512.000
786,-16437161.000
787,-16443825.000
788,-16441484.000
789,-16442810.000
790,-16449283.000
791,-16446524.000
792,-16442226.000
793,-16444016.000
794,-16441803.000
795,-16433166.000
796,-16431821.000
797,-16436293.000
798,-16434263.000
799,-16436139.000
800,-16442396.000
801,-16441883.000
802,-16442232.000
803,-16441725.000
804,-16437394.000
805,-16440314.000
806,-16446048.000
807,-16445517.000
808,-16443881.000
809,-16441970.000
810,-16438582.000
811,-16439098.000
812,-16444077.000
813,-16446097.000
814,-16435754.000
815,-16427016.000
816,-16436392.000
817,-16446944.000
818,-16445467.000
819,-16440592.000
820,-16443030.000
821,-16445634.000
822,-16435790.000
823,-16427775.000
824,-16432472.000
825,-16442900.000
826,-16450876.000
827,-16451689.000
828,-16449271.000
829,-16447756.000
830,-16448191.000
831,-16444848.000
832,-16439437.000
833,-16437618.000
834,-16439801.000
835,-16442721.000
836,-16440665.000
837,-16438355.000
838,-16437985.000
839,-16435968.000
840,-16435640.000
841,-16436483.000
842,-16433518.000
843,-16424291.000
844,-16424185.000
845,-16437434.000
846,-16439036.000
847,-16434932.000
848,-16440237.000
849,-16446033.000
850,-16442751.000
851,-16433259.000
852,-16430471.000
853,-16429793.000
854,-16428999.000
855,-16437409.000
856,-16443773.000
857,-16442456.000
858,-16439318.000
859,-16432996.000
860,-16433572.000
861,-16441141.000
862,-16443514.000
863,-16438401.000
864,-16432258.000
865,-16431747.000
866,-16438674.000
867,-16445223.000
868,-16445838.000
869,-16442510.000
870,-16444662.000
871,-16448472.000
872,-16439021.000
873,-16429600.000
874,-16431908.000
875,-16438349.000
876,-16441410.000
877,-16445316.000
878,-16448279.000
879,-16438839.000
880,-16435673.000
881,-16447415.000
882,-16453370.000
883,-16447464.000
884,-16433735.000
885,-16424608.000
886,-16428678.000
887,-16436527.000
888,-16439618.000
889,-16436916.000
890,-16414974.000
891,-16364900.000
892,-16295209.000
893,-16163323.000
894,-15923707.000
895,-15569430.000
896,-15080826.000
897,-14602593.000
898,-14354132.000
899,-14299442.000
900,-14282534.000
901,-14252911.000
902,-14243234.000
903,-14291035.000
904,-14384445.000
905,-14494697.000
906,-14659192.000
907,-14872028.000
908,-15049061.000
909,-15195757.000
910,-15352978.000
911,-15509234.000
912,-15636621.000
913,-15758242.000
914,-15887539.000
915,-16010760.000
916,-16121037.000
917,-16208282.000
918,-16268033.000
919,-16310333.000
920,-16337923.000
921,-16362835.000
922,-16381263.000
923,-16398630.000
924,-16416113.000
925,-16421249.000
926,-16416511.000
927,-16412092.000
928,-16411117.000
929,-16420514.000
930,-16432761.000
931,-16437526.000
932,-16437673.000
933,-16436537.000
934,-16435299.000
935,-16437640.000
936,-16442405.000
937,-16440558.000
938,-16437775.000
939,-16442714.000
940,-16446878.000
941,-16442385.000
942,-16439721.000
943,-16440852.000
944,-16438437.000
945,-16438274.000
946,-16442518.000
947,-16446612.000
948,-16445319.000
949,-16439731.000
950,-16439980.000
951,-16441362.000
952,-16439688.000
953,-16441256.000
954,-16444060.000
955,-16447130.000
956,-16448992.000
957,-16449914.000
958,-16451695.000
959,-16450296.000
960,-16444814.000
961,-16436544.000
962,-16431531.000
963,-16436546.000
964,-16446269.000
965,-16451478.000
966,-16450856.000
967,-16445171.000
968,-16440414.000
969,-16440207.000
970,-16439762.000
971,-16439320.000
972,-16439598.000
973,-16443250.000
974,-16446775.000
975,-16445887.000
976,-16441960.000
977,-16439089.000
978,-16439503.000
979,-16443040.000
980,-16449038.000
981,-16453335.000
982,-16454493.000
983,-16452606.000
984,-16447381.000
985,-16441160.000
986,-16441667.000
987,-16444519.000
988,-16438792.000
989,-16435175.000
990,-16438328.000
991,-16438146.000
992,-16437153.000
993,-16438939.000
994,-16445487.000
995,-16450871.000
996,-16446717.000
997,-16438903.000
998,-16434835.000
999,-16434608.000
1000,-16438435.000
1001,-16443083.000
1002,-16438819.000
1003,-16432297.000
1004,-16431057.000
1005,-16432858.000
1006,-16431785.000
1007,-16431120.000
1008,-16437983.000
1009,-16444457.000
1010,-16446432.000
1011,-16448806.000
1012,-16447495.000
1013,-16445378.000
1014,-16443855.000
1015,-16438952.000
1016,-16438187.000
1017,-16443052.000
1018,-16445034.000
1019,-16439679.000
1020,-16431866.000
1021,-16430847.000
1022,-16441451.000
1023,-16449691.000
1024,-16443324.000
1025,-16438469.000
1026,-16436724.000
1027,-16425217.000
1028,-16426299.000
1029,-16441650.000
1030,-16445785.000
1031,-16442563.000
1032,-16444068.000
1033,-16444942.000
1034,-16441636.000
1035,-16439611.000
1036,-16444434.000
1037,-16449919.000
1038,-16447113.000
1039,-16443917.000
1040,-16448174.000
1041,-16452084.000
1042,-16450455.000
1043,-16446165.000
1044,-16445493.000
1045,-16447275.000
1046,-16443884.000
1047,-16441882.000
1048,-16442953.000
1049,-16440851.000
1050,-16440718.000
1051,-16443415.000
1052,-16443921.000
1053,-16446211.000
1054,-16449654.000
1055,-16449156.000
1056,-16447107.000
1057,-16445555.000
1058,-16446589.000
1059,-16450689.000
1060,-16451015.000
1061,-16447561.000
1062,-16444736.000
1063,-16444019.000
1064,-16444302.000
1065,-16444911.000
1066,-16445803.000
1067,-16442345.000
1068,-16441258.000
1069,-16443118.000
1070,-16443956.000
1071,-16444526.000
1072,-16443089.000
1073,-16440443.000
1074,-16441046.000
1075,-16445134.000
1076,-16447968.000
1077,-16449941.000
1078,-16449011.000
1079,-16444350.000
1080,-16444159.000
1081,-16447368.000
1082,-16446271.000
1083,-16443989.000
1084,-16443784.000
1085,-16443498.000
1086,-16445031.000
1087,-16445092.000
1088,-16441888.000
1089,-16441799.000
1090,-16446543.000
1091,-16450534.000
1092,-16450996.000
1093,-16447607.000
1094,-16441387.000
1095,-16443995.000
1096,-16448683.000
1097,-16439778.000
1098,-16429951.000
1099,-16435396.000
1100,-16445742.000
1101,-16447341.000
1102,-16442850.000
1103,-16441358.000
1104,-16440555.000
1105,-16434188.000
1106,-16431492.000
1107,-16437047.000
1108,-16441451.000
1109,-16445134.000
1110,-16445498.000
1111,-16441725.000
1112,-16444093.000
1113,-16447686.000
1114,-16445581.000
1115,-16441423.000
1116,-16436913.000
1117,-16430211.000
1118,-16432357.000
1119,-16441875.000
1120,-16442839.000
1121,-16438246.000
1122,-16434498.000
1123,-16433594.000
1124,-16436881.000
1125,-16443164.000
1126,-16444795.000
1127,-16439712.000
1128,-16439151.000
1129,-16442517.000
1130,-16440497.000
1131,-16441477.000
1132,-16446311.000
1133,-16449662.000
1134,-16451267.000
1135,-16451006.000
1136,-16446095.000
1137,-16443229.000
1138,-16447825.000
1139,-16450576.000
1140,-16447912.000
1141,-16439286.000
1142,-16434295.000
1143,-16433257.000
1144,-16435540.000
1145,-16441790.000
1146,-16442960.000
1147,-16442470.000
1148,-16446052.000
1149,-16446812.000
1150,-16443927.000
1151,-16444445.000
1152,-16446110.000
1153,-16447398.000
1154,-16449379.000
1155,-16449324.000
1156,-16447293.000
1157,-16447075.000
1158,-16444872.000
1159,-16438526.000
1160,-16440266.000
1161,-16444552.000
1162,-16440813.000
1163,-16439649.000
1164,-16442403.000
1165,-16443326.000
1166,-16440868.000
1167,-16439448.000
1168,-16443193.000
1169,-16444350.000
1170,-16443289.000
1171,-16446189.000
1172,-16448673.000
1173,-16445403.000
1174,-16438364.000
1175,-16438014.000
1176,-16444941.000
1177,-16448417.000
1178,-16445750.000
1179,-16440362.000
1180,-16435192.000
1181,-16436402.000
1182,-16441784.000
1183,-16447970.000
1184,-16452780.000
1185,-16449812.000
1186,-16444063.000
1187,-16442882.000
1188,-16446242.000
1189,-16449535.000
1190,-16446521.000
1191,-16431379.000
1192,-16422555.000
1193,-16432901.000
1194,-16442054.000
1195,-16441784.000
1196,-16445410.000
1197,-16451707.000
1198,-16449657.000
1199,-16442173.000
1200,-16441955.000
1201,-16447181.000
1202,-16448998.000
1203,-16445725.000
1204,-16437595.000
1205,-16425774.000
1206,-16378499.000
1207,-16243917.000
1208,-15988892.000
1209,-15616370.000
1210,-15197504.000
1211,-14633950.000
1212,-13737032.000
1213,-12539523.000
1214,-11140165.000
1215,-9921187.000
1216,-9381673.000
1217,-9297000.000
1218,-9276148.000
1219,-9275769.000
1220,-9363320.000
1221,-9564216.000
1222,-9854264.000
1223,-10190780.000
1224,-10613170.000
1225,-11145627.000
1226,-11613401.000
1227,-11998308.000
1228,-12434526.000
1229,-12900800.000
1230,-13287638.000
1231,-13658370.000
1232,-14042886.000
1233,-14388951.000
1234,-14696624.000
1235,-14943196.000
1236,-15143655.000
1237,-15333181.000
1238,-15514434.000
1239,-15671756.000
1240,-15788047.000
1241,-15881539.000
1242,-15974726.000
1243,-16061506.000
1244,-16135657.000
1245,-16200391.000
1246,-16253936.000
1247,-16302524.000
1248,-16339803.000
1249,-16370691.000
1250,-16392044.000
1251,-16398017.000
1252,-16394833.000
1253,-16399558.000
1254,-16415552.000
1255,-16425224.000
1256,-16420555.000
1257,-16415576.000
1258,-16405462.000
1259,-16403838.000
1260,-16415002.000
1261,-16423082.000
1262,-16431463.000
1263,-16437137.000
1264,-16440346.000
1265,-16443725.000
1266,-16437884.000
1267,-16424510.000
1268,-16422937.000
1269,-16431225.000
1270,-16427243.000
1271,-16413976.000
1272,-16416366.000
1273,-16434261.000
1274,-16441414.000
1275,-16432383.000
1276,-16426511.000
1277,-16433375.000
1278,-16432828.000
1279,-16420421.000
1280,-16412936.000
1281,-16422835.000
1282,-16424195.000
1283,-16430738.000
1284,-16460581.000
1285,-16458989.000
1286,-16465513.000
1287,NaN
